#data for Fig. 3(a)
#rms dynamics for effective model. See SM for more details.

#Parameters: J_perp = 500t, J_parallel = 0.

#tau: evolution time

#Delta_rms: root-mean-square of Delta = (x1 - x2)/2
#Delta_std: standard error on Delta_rms estimated from sampling 

#X_rms: root-mean-square of X = (x1 + x2)/2
#norm: norm of wave function (should be 1 always)

tau 	  X_rms	 	 norm

0.0000000 0.0000000 1.0000000
0.0250000 0.0160032 1.0000000
0.0500000 0.0011608 1.0000000
0.0750000 0.0160787 1.0000000
0.1000000 0.0023216 1.0000000
0.1250000 0.0162285 1.0000000
0.1500000 0.0034823 1.0000000
0.1750000 0.0164508 1.0000000
0.2000000 0.0046430 1.0000000
0.2250000 0.0167425 1.0000000
0.2500000 0.0058037 1.0000000
0.2750000 0.0171002 1.0000000
0.3000000 0.0069642 1.0000000
0.3250000 0.0175199 1.0000000
0.3500000 0.0081247 1.0000000
0.3750000 0.0179971 1.0000000
0.4000000 0.0092850 1.0000000
0.4250000 0.0185276 1.0000000
0.4500000 0.0104452 1.0000000
0.4750000 0.0191070 1.0000000
0.5000000 0.0116053 1.0000000
0.5250000 0.0197308 1.0000000
0.5500000 0.0127652 1.0000000
0.5750000 0.0203952 1.0000000
0.6000000 0.0139250 1.0000000
0.6250000 0.0210962 1.0000000
0.6500000 0.0150845 1.0000000
0.6750000 0.0218305 1.0000000
0.7000000 0.0162438 1.0000000
0.7250000 0.0225947 1.0000000
0.7500000 0.0174030 1.0000000
0.7750000 0.0233861 1.0000000
0.8000000 0.0185618 1.0000000
0.8250000 0.0242020 1.0000000
0.8500000 0.0197205 1.0000000
0.8750000 0.0250400 1.0000000
0.9000000 0.0208788 1.0000000
0.9250000 0.0258980 1.0000000
0.9500000 0.0220369 1.0000000
0.9750000 0.0267742 1.0000000
1.0000000 0.0231947 1.0000000
1.0250000 0.0276669 1.0000000
1.0500000 0.0243521 1.0000000
1.0750000 0.0285745 1.0000000
1.1000000 0.0255093 1.0000000
1.1250000 0.0294959 1.0000000
1.1500000 0.0266661 1.0000000
1.1750000 0.0304296 1.0000000
1.2000000 0.0278226 1.0000000
1.2250000 0.0313748 1.0000000
1.2500000 0.0289786 1.0000000
1.2750000 0.0323303 1.0000000
1.3000000 0.0301344 1.0000000
1.3250000 0.0332955 1.0000000
1.3500000 0.0312897 1.0000000
1.3750000 0.0342695 1.0000000
1.4000000 0.0324446 1.0000000
1.4250000 0.0352517 1.0000000
1.4500000 0.0335991 1.0000000
1.4750000 0.0362413 1.0000000
1.5000000 0.0347532 1.0000000
1.5250000 0.0372380 1.0000000
1.5500000 0.0359068 1.0000000
1.5750000 0.0382411 1.0000000
1.6000000 0.0370600 1.0000000
1.6250000 0.0392503 1.0000000
1.6500000 0.0382127 1.0000000
1.6750000 0.0402651 1.0000000
1.7000000 0.0393650 1.0000000
1.7250000 0.0412851 1.0000000
1.7500000 0.0405168 1.0000000
1.7750000 0.0423100 1.0000000
1.8000000 0.0416680 1.0000000
1.8250000 0.0433396 1.0000000
1.8500000 0.0428188 1.0000000
1.8750000 0.0443735 1.0000000
1.9000000 0.0439691 1.0000000
1.9250000 0.0454115 1.0000000
1.9500000 0.0451188 1.0000000
1.9750000 0.0464534 1.0000000
2.0000000 0.0462680 1.0000000
2.0250000 0.0474989 1.0000000
2.0500000 0.0474167 1.0000000
2.0750000 0.0485479 1.0000000
2.1000000 0.0485649 1.0000000
2.1250000 0.0496002 1.0000000
2.1500000 0.0497124 1.0000000
2.1750000 0.0506555 1.0000000
2.2000000 0.0508594 1.0000000
2.2250000 0.0517139 1.0000000
2.2500000 0.0520059 1.0000000
2.2750000 0.0527751 1.0000000
2.3000000 0.0531518 1.0000000
2.3250000 0.0538390 1.0000000
2.3500000 0.0542970 1.0000000
2.3750000 0.0549054 1.0000000
2.4000000 0.0554418 1.0000000
2.4250000 0.0559744 1.0000000
2.4500000 0.0565859 1.0000000
2.4750000 0.0570457 1.0000000
2.5000000 0.0577294 1.0000000
2.5250000 0.0581193 1.0000000
2.5500000 0.0588723 1.0000000
2.5750000 0.0591951 1.0000000
2.6000000 0.0600146 1.0000000
2.6250000 0.0602731 1.0000000
2.6500000 0.0611563 1.0000000
2.6750000 0.0613530 1.0000000
2.7000000 0.0622974 1.0000000
2.7250000 0.0624349 1.0000000
2.7500000 0.0634378 1.0000000
2.7750000 0.0635188 1.0000000
2.8000000 0.0645777 1.0000000
2.8250000 0.0646044 1.0000000
2.8500000 0.0657169 1.0000000
2.8750000 0.0656918 1.0000000
2.9000000 0.0668555 1.0000000
2.9250000 0.0667810 1.0000000
2.9500000 0.0679935 1.0000000
2.9750000 0.0678718 1.0000000
3.0000000 0.0691308 1.0000000
3.0250000 0.0689643 1.0000000
3.0500000 0.0702675 1.0000000
3.0750000 0.0700583 1.0000000
3.1000000 0.0714036 1.0000000
3.1250000 0.0711538 1.0000000
3.1500000 0.0725391 1.0000000
3.1750000 0.0722508 1.0000000
3.2000000 0.0736739 1.0000000
3.2250000 0.0733492 1.0000000
3.2500000 0.0748082 1.0000000
3.2750000 0.0744491 1.0000000
3.3000000 0.0759418 1.0000000
3.3250000 0.0755503 1.0000000
3.3500000 0.0770747 1.0000000
3.3750000 0.0766529 1.0000000
3.4000000 0.0782071 1.0000000
3.4250000 0.0777567 1.0000000
3.4500000 0.0793388 1.0000000
3.4750000 0.0788618 1.0000000
3.5000000 0.0804699 1.0000000
3.5250000 0.0799681 1.0000000
3.5500000 0.0816004 1.0000000
3.5750000 0.0810756 1.0000000
3.6000000 0.0827303 1.0000000
3.6250000 0.0821843 1.0000000
3.6500000 0.0838596 1.0000000
3.6750000 0.0832942 1.0000000
3.7000000 0.0849883 1.0000000
3.7250000 0.0844051 1.0000000
3.7500000 0.0861164 1.0000000
3.7750000 0.0855171 1.0000000
3.8000000 0.0872440 1.0000000
3.8250000 0.0866302 1.0000000
3.8500000 0.0883709 1.0000000
3.8750000 0.0877443 1.0000000
3.9000000 0.0894972 1.0000000
3.9250000 0.0888594 1.0000000
3.9500000 0.0906230 1.0000000
3.9750000 0.0899755 1.0000000
4.0000000 0.0917482 1.0000000
4.0250000 0.0910926 1.0000000
4.0500000 0.0928729 1.0000000
4.0750000 0.0922106 1.0000000
4.1000000 0.0939970 1.0000000
4.1250000 0.0933295 1.0000000
4.1500000 0.0951206 1.0000000
4.1750000 0.0944492 1.0000000
4.2000000 0.0962436 1.0000000
4.2250000 0.0955699 1.0000000
4.2500000 0.0973661 1.0000000
4.2750000 0.0966913 1.0000000
4.3000000 0.0984881 1.0000000
4.3250000 0.0978136 1.0000000
4.3500000 0.0996096 1.0000000
4.3750000 0.0989367 1.0000000
4.4000000 0.1007305 1.0000000
4.4250000 0.1000606 1.0000000
4.4500000 0.1018510 1.0000000
4.4750000 0.1011852 1.0000000
4.5000000 0.1029710 1.0000000
4.5250000 0.1023105 1.0000000
4.5500000 0.1040905 1.0000000
4.5750000 0.1034366 1.0000000
4.6000000 0.1052096 1.0000000
4.6250000 0.1045633 1.0000000
4.6500000 0.1063282 1.0000000
4.6750000 0.1056907 1.0000000
4.7000000 0.1074464 1.0000000
4.7250000 0.1068187 1.0000000
4.7500000 0.1085641 1.0000000
4.7750000 0.1079474 1.0000000
4.8000000 0.1096814 1.0000000
4.8250000 0.1090767 1.0000000
4.8500000 0.1107983 1.0000000
4.8750000 0.1102066 1.0000000
4.9000000 0.1119148 1.0000000
4.9250000 0.1113370 1.0000000
4.9500000 0.1130310 1.0000000
4.9750000 0.1124680 1.0000000
5.0000000 0.1141467 1.0000000
5.0250000 0.1135995 1.0000000
5.0500000 0.1152621 1.0000000
5.0750000 0.1147315 1.0000000
5.1000000 0.1163771 1.0000000
5.1250000 0.1158640 1.0000000
5.1500000 0.1174918 1.0000000
5.1750000 0.1169969 1.0000000
5.2000000 0.1186062 1.0000000
5.2250000 0.1181303 1.0000000
5.2500000 0.1197203 1.0000000
5.2750000 0.1192642 1.0000000
5.3000000 0.1208340 1.0000000
5.3250000 0.1203984 1.0000000
5.3500000 0.1219475 1.0000000
5.3750000 0.1215331 1.0000000
5.4000000 0.1230607 1.0000000
5.4250000 0.1226681 1.0000000
5.4500000 0.1241736 1.0000000
5.4750000 0.1238035 1.0000000
5.5000000 0.1252863 1.0000000
5.5250000 0.1249392 1.0000000
5.5500000 0.1263987 1.0000000
5.5750000 0.1260752 1.0000000
5.6000000 0.1275109 1.0000000
5.6250000 0.1272115 1.0000000
5.6500000 0.1286229 1.0000000
5.6750000 0.1283481 1.0000000
5.7000000 0.1297347 1.0000000
5.7250000 0.1294850 1.0000000
5.7500000 0.1308463 1.0000000
5.7750000 0.1306221 1.0000000
5.8000000 0.1319578 1.0000000
5.8250000 0.1317594 1.0000000
5.8500000 0.1330691 1.0000000
5.8750000 0.1328969 1.0000000
5.9000000 0.1341802 1.0000000
5.9250000 0.1340347 1.0000000
5.9500000 0.1352912 1.0000000
5.9750000 0.1351726 1.0000000
6.0000000 0.1364021 1.0000000
6.0250000 0.1363106 1.0000000
6.0500000 0.1375129 1.0000000
6.0750000 0.1374488 1.0000000
6.1000000 0.1386236 1.0000000
6.1250000 0.1385871 1.0000000
6.1500000 0.1397342 1.0000000
6.1750000 0.1397256 1.0000000
6.2000000 0.1408447 1.0000000
6.2250000 0.1408641 1.0000000
6.2500000 0.1419552 1.0000000
6.2750000 0.1420027 1.0000000
6.3000000 0.1430656 1.0000000
6.3250000 0.1431414 1.0000000
6.3500000 0.1441761 1.0000000
6.3750000 0.1442801 1.0000000
6.4000000 0.1452864 1.0000000
6.4250000 0.1454188 1.0000000
6.4500000 0.1463968 1.0000000
6.4750000 0.1465575 1.0000000
6.5000000 0.1475072 1.0000000
6.5250000 0.1476963 1.0000000
6.5500000 0.1486176 1.0000000
6.5750000 0.1488350 1.0000000
6.6000000 0.1497280 1.0000000
6.6250000 0.1499737 1.0000000
6.6500000 0.1508385 1.0000000
6.6750000 0.1511123 1.0000000
6.7000000 0.1519490 1.0000000
6.7250000 0.1522509 1.0000000
6.7500000 0.1530596 1.0000000
6.7750000 0.1533894 1.0000000
6.8000000 0.1541703 1.0000000
6.8250000 0.1545278 1.0000000
6.8500000 0.1552811 1.0000000
6.8750000 0.1556661 1.0000000
6.9000000 0.1563919 1.0000000
6.9250000 0.1568043 1.0000000
6.9500000 0.1575029 1.0000000
6.9750000 0.1579424 1.0000000
7.0000000 0.1586139 1.0000000
7.0250000 0.1590803 1.0000000
7.0500000 0.1597251 1.0000000
7.0750000 0.1602181 1.0000000
7.1000000 0.1608365 1.0000000
7.1250000 0.1613557 1.0000000
7.1500000 0.1619480 1.0000000
7.1750000 0.1624931 1.0000000
7.2000000 0.1630596 1.0000000
7.2250000 0.1636303 1.0000000
7.2500000 0.1641714 1.0000000
7.2750000 0.1647674 1.0000000
7.3000000 0.1652834 1.0000000
7.3250000 0.1659042 1.0000000
7.3500000 0.1663955 1.0000000
7.3750000 0.1670408 1.0000000
7.4000000 0.1675079 1.0000000
7.4250000 0.1681772 1.0000000
7.4500000 0.1686204 1.0000000
7.4750000 0.1693134 1.0000000
7.5000000 0.1697332 1.0000000
7.5250000 0.1704493 1.0000000
7.5500000 0.1708462 1.0000000
7.5750000 0.1715849 1.0000000
7.6000000 0.1719594 1.0000000
7.6250000 0.1727203 1.0000000
7.6500000 0.1730728 1.0000000
7.6750000 0.1738554 1.0000000
7.7000000 0.1741864 1.0000000
7.7250000 0.1749902 1.0000000
7.7500000 0.1753003 1.0000000
7.7750000 0.1761247 1.0000000
7.8000000 0.1764145 1.0000000
7.8250000 0.1772589 1.0000000
7.8500000 0.1775289 1.0000000
7.8750000 0.1783928 1.0000000
7.9000000 0.1786435 1.0000000
7.9250000 0.1795264 1.0000000
7.9500000 0.1797584 1.0000000
7.9750000 0.1806597 1.0000000
8.0000000 0.1808736 1.0000000
8.0250000 0.1817927 1.0000000
8.0500000 0.1819891 1.0000000
8.0750000 0.1829253 1.0000000
8.1000000 0.1831048 1.0000000
8.1250000 0.1840576 1.0000000
8.1500000 0.1842208 1.0000000
8.1750000 0.1851895 1.0000000
8.2000000 0.1853371 1.0000000
8.2250000 0.1863211 1.0000000
8.2500000 0.1864536 1.0000000
8.2750000 0.1874524 1.0000000
8.3000000 0.1875705 1.0000000
8.3250000 0.1885833 1.0000000
8.3500000 0.1886877 1.0000000
8.3750000 0.1897138 1.0000000
8.4000000 0.1898051 1.0000000
8.4250000 0.1908439 1.0000000
8.4500000 0.1909229 1.0000000
8.4750000 0.1919737 1.0000000
8.5000000 0.1920409 1.0000000
8.5250000 0.1931032 1.0000000
8.5500000 0.1931592 1.0000000
8.5750000 0.1942322 1.0000000
8.6000000 0.1942779 1.0000000
8.6250000 0.1953609 1.0000000
8.6500000 0.1953968 1.0000000
8.6750000 0.1964892 1.0000000
8.7000000 0.1965160 1.0000000
8.7250000 0.1976171 1.0000000
8.7500000 0.1976356 1.0000000
8.7750000 0.1987447 1.0000000
8.8000000 0.1987554 1.0000000
8.8250000 0.1998719 1.0000000
8.8500000 0.1998755 1.0000000
8.8750000 0.2009987 1.0000000
8.9000000 0.2009959 1.0000000
8.9250000 0.2021251 1.0000000
8.9500000 0.2021166 1.0000000
8.9750000 0.2032511 1.0000000
9.0000000 0.2032377 1.0000000
9.0250000 0.2043768 1.0000000
9.0500000 0.2043590 1.0000000
9.0750000 0.2055021 1.0000000
9.1000000 0.2054806 1.0000000
9.1250000 0.2066270 1.0000000
9.1500000 0.2066024 1.0000000
9.1750000 0.2077515 1.0000000
9.2000000 0.2077246 1.0000000
9.2250000 0.2088757 1.0000000
9.2500000 0.2088470 1.0000000
9.2750000 0.2099995 1.0000000
9.3000000 0.2099698 1.0000000
9.3250000 0.2111229 1.0000000
9.3500000 0.2110927 1.0000000
9.3750000 0.2122459 1.0000000
9.4000000 0.2122160 1.0000000
9.4250000 0.2133686 1.0000000
9.4500000 0.2133395 1.0000000
9.4750000 0.2144910 1.0000000
9.5000000 0.2144633 1.0000000
9.5250000 0.2156129 1.0000000
9.5500000 0.2155874 1.0000000
9.5750000 0.2167346 1.0000000
9.6000000 0.2167117 1.0000000
9.6250000 0.2178558 1.0000000
9.6500000 0.2178362 1.0000000
9.6750000 0.2189767 1.0000000
9.7000000 0.2189610 1.0000000
9.7250000 0.2200973 1.0000000
9.7500000 0.2200860 1.0000000
9.7750000 0.2212176 1.0000000
9.8000000 0.2212112 1.0000000
9.8250000 0.2223375 1.0000000
9.8500000 0.2223367 1.0000000
9.8750000 0.2234571 1.0000000
9.9000000 0.2234624 1.0000000
9.9250000 0.2245764 1.0000000
9.9500000 0.2245883 1.0000000
9.9750000 0.2256953 1.0000000
10.0000000 0.2257144 1.0000000
10.0250000 0.2268139 1.0000000
10.0500000 0.2268407 1.0000000
10.0750000 0.2279323 1.0000000
10.1000000 0.2279672 1.0000000
10.1250000 0.2290503 1.0000000
10.1500000 0.2290938 1.0000000
10.1750000 0.2301681 1.0000000
10.2000000 0.2302207 1.0000000
10.2250000 0.2312855 1.0000000
10.2500000 0.2313477 1.0000000
10.2750000 0.2324027 1.0000000
10.3000000 0.2324748 1.0000000
10.3250000 0.2335196 1.0000000
10.3500000 0.2336021 1.0000000
10.3750000 0.2346363 1.0000000
10.4000000 0.2347296 1.0000000
10.4250000 0.2357527 1.0000000
10.4500000 0.2358572 1.0000000
10.4750000 0.2368688 1.0000000
10.5000000 0.2369849 1.0000000
10.5250000 0.2379847 1.0000000
10.5500000 0.2381127 1.0000000
10.5750000 0.2391003 1.0000000
10.6000000 0.2392407 1.0000000
10.6250000 0.2402158 1.0000000
10.6500000 0.2403687 1.0000000
10.6750000 0.2413310 1.0000000
10.7000000 0.2414969 1.0000000
10.7250000 0.2424460 1.0000000
10.7500000 0.2426251 1.0000000
10.7750000 0.2435607 1.0000000
10.8000000 0.2437534 1.0000000
10.8250000 0.2446753 1.0000000
10.8500000 0.2448818 1.0000000
10.8750000 0.2457897 1.0000000
10.9000000 0.2460102 1.0000000
10.9250000 0.2469039 1.0000000
10.9500000 0.2471387 1.0000000
10.9750000 0.2480180 1.0000000
11.0000000 0.2482672 1.0000000
11.0250000 0.2491318 1.0000000
11.0500000 0.2493957 1.0000000
11.0750000 0.2502455 1.0000000
11.1000000 0.2505243 1.0000000
11.1250000 0.2513591 1.0000000
11.1500000 0.2516529 1.0000000
11.1750000 0.2524725 1.0000000
11.2000000 0.2527815 1.0000000
11.2250000 0.2535858 1.0000000
11.2500000 0.2539101 1.0000000
11.2750000 0.2546989 1.0000000
11.3000000 0.2550386 1.0000000
11.3250000 0.2558120 1.0000000
11.3500000 0.2561672 1.0000000
11.3750000 0.2569249 1.0000000
11.4000000 0.2572957 1.0000000
11.4250000 0.2580377 1.0000000
11.4500000 0.2584242 1.0000000
11.4750000 0.2591504 1.0000000
11.5000000 0.2595526 1.0000000
11.5250000 0.2602630 1.0000000
11.5500000 0.2606810 1.0000000
11.5750000 0.2613756 1.0000000
11.6000000 0.2618093 1.0000000
11.6250000 0.2624881 1.0000000
11.6500000 0.2629375 1.0000000
11.6750000 0.2636005 1.0000000
11.7000000 0.2640656 1.0000000
11.7250000 0.2647128 1.0000000
11.7500000 0.2651937 1.0000000
11.7750000 0.2658252 1.0000000
11.8000000 0.2663216 1.0000000
11.8250000 0.2669374 1.0000000
11.8500000 0.2674494 1.0000000
11.8750000 0.2680497 1.0000000
11.9000000 0.2685772 1.0000000
11.9250000 0.2691619 1.0000000
11.9500000 0.2697048 1.0000000
11.9750000 0.2702741 1.0000000
12.0000000 0.2708322 1.0000000
12.0250000 0.2713862 1.0000000
12.0500000 0.2719595 1.0000000
12.0750000 0.2724984 1.0000000
12.1000000 0.2730867 1.0000000
12.1250000 0.2736106 1.0000000
12.1500000 0.2742137 1.0000000
12.1750000 0.2747228 1.0000000
12.2000000 0.2753406 1.0000000
12.2250000 0.2758349 1.0000000
12.2500000 0.2764672 1.0000000
12.2750000 0.2769472 1.0000000
12.3000000 0.2775937 1.0000000
12.3250000 0.2780594 1.0000000
12.3500000 0.2787201 1.0000000
12.3750000 0.2791717 1.0000000
12.4000000 0.2798462 1.0000000
12.4250000 0.2802840 1.0000000
12.4500000 0.2809721 1.0000000
12.4750000 0.2813963 1.0000000
12.5000000 0.2820978 1.0000000
12.5250000 0.2825087 1.0000000
12.5500000 0.2832233 1.0000000
12.5750000 0.2836212 1.0000000
12.6000000 0.2843486 1.0000000
12.6250000 0.2847337 1.0000000
12.6500000 0.2854737 1.0000000
12.6750000 0.2858463 1.0000000
12.7000000 0.2865985 1.0000000
12.7250000 0.2869590 1.0000000
12.7500000 0.2877231 1.0000000
12.7750000 0.2880717 1.0000000
12.8000000 0.2888475 1.0000000
12.8250000 0.2891845 1.0000000
12.8500000 0.2899716 1.0000000
12.8750000 0.2902974 1.0000000
12.9000000 0.2910955 1.0000000
12.9250000 0.2914104 1.0000000
12.9500000 0.2922191 1.0000000
12.9750000 0.2925235 1.0000000
13.0000000 0.2933424 1.0000000
13.0250000 0.2936366 1.0000000
13.0500000 0.2944655 1.0000000
13.0750000 0.2947499 1.0000000
13.1000000 0.2955883 1.0000000
13.1250000 0.2958633 1.0000000
13.1500000 0.2967109 1.0000000
13.1750000 0.2969768 1.0000000
13.2000000 0.2978332 1.0000000
13.2250000 0.2980904 1.0000000
13.2500000 0.2989552 1.0000000
13.2750000 0.2992041 1.0000000
13.3000000 0.3000769 1.0000000
13.3250000 0.3003179 1.0000000
13.3500000 0.3011983 1.0000000
13.3750000 0.3014318 1.0000000
13.4000000 0.3023194 1.0000000
13.4250000 0.3025458 1.0000000
13.4500000 0.3034403 1.0000000
13.4750000 0.3036600 1.0000000
13.5000000 0.3045608 1.0000000
13.5250000 0.3047743 1.0000000
13.5500000 0.3056811 1.0000000
13.5750000 0.3058887 1.0000000
13.6000000 0.3068011 1.0000000
13.6250000 0.3070032 1.0000000
13.6500000 0.3079207 1.0000000
13.6750000 0.3081178 1.0000000
13.7000000 0.3090401 1.0000000
13.7250000 0.3092326 1.0000000
13.7500000 0.3101591 1.0000000
13.7750000 0.3103475 1.0000000
13.8000000 0.3112779 1.0000000
13.8250000 0.3114625 1.0000000
13.8500000 0.3123964 1.0000000
13.8750000 0.3125777 1.0000000
13.9000000 0.3135145 1.0000000
13.9250000 0.3136929 1.0000000
13.9500000 0.3146324 1.0000000
13.9750000 0.3148083 1.0000000
14.0000000 0.3157499 1.0000000
14.0250000 0.3159238 1.0000000
14.0500000 0.3168672 1.0000000
14.0750000 0.3170395 1.0000000
14.1000000 0.3179841 1.0000000
14.1250000 0.3181552 1.0000000
14.1500000 0.3191007 1.0000000
14.1750000 0.3192711 1.0000000
14.2000000 0.3202171 1.0000000
14.2250000 0.3203871 1.0000000
14.2500000 0.3213331 1.0000000
14.2750000 0.3215032 1.0000000
14.3000000 0.3224488 1.0000000
14.3250000 0.3226194 1.0000000
14.3500000 0.3235643 1.0000000
14.3750000 0.3237357 1.0000000
14.4000000 0.3246794 1.0000000
14.4250000 0.3248522 1.0000000
14.4500000 0.3257942 1.0000000
14.4750000 0.3259687 1.0000000
14.5000000 0.3269088 1.0000000
14.5250000 0.3270854 1.0000000
14.5500000 0.3280231 1.0000000
14.5750000 0.3282021 1.0000000
14.6000000 0.3291370 1.0000000
14.6250000 0.3293190 1.0000000
14.6500000 0.3302507 1.0000000
14.6750000 0.3304359 1.0000000
14.7000000 0.3313641 1.0000000
14.7250000 0.3315529 1.0000000
14.7500000 0.3324772 1.0000000
14.7750000 0.3326701 1.0000000
14.8000000 0.3335900 1.0000000
14.8250000 0.3337873 1.0000000
14.8500000 0.3347026 1.0000000
14.8750000 0.3349045 1.0000000
14.9000000 0.3358149 1.0000000
14.9250000 0.3360219 1.0000000
14.9500000 0.3369269 1.0000000
14.9750000 0.3371393 1.0000000
15.0000000 0.3380387 1.0000000
15.0250000 0.3382568 1.0000000
15.0500000 0.3391502 1.0000000
15.0750000 0.3393744 1.0000000
15.1000000 0.3402614 1.0000000
15.1250000 0.3404920 1.0000000
15.1500000 0.3413724 1.0000000
15.1750000 0.3416097 1.0000000
15.2000000 0.3424831 1.0000000
15.2250000 0.3427274 1.0000000
15.2500000 0.3435936 1.0000000
15.2750000 0.3438451 1.0000000
15.3000000 0.3447039 1.0000000
15.3250000 0.3449629 1.0000000
15.3500000 0.3458139 1.0000000
15.3750000 0.3460807 1.0000000
15.4000000 0.3469237 1.0000000
15.4250000 0.3471986 1.0000000
15.4500000 0.3480333 1.0000000
15.4750000 0.3483165 1.0000000
15.5000000 0.3491426 1.0000000
15.5250000 0.3494344 1.0000000
15.5500000 0.3502517 1.0000000
15.5750000 0.3505523 1.0000000
15.6000000 0.3513606 1.0000000
15.6250000 0.3516702 1.0000000
15.6500000 0.3524693 1.0000000
15.6750000 0.3527880 1.0000000
15.7000000 0.3535778 1.0000000
15.7250000 0.3539059 1.0000000
15.7500000 0.3546862 1.0000000
15.7750000 0.3550238 1.0000000
15.8000000 0.3557943 1.0000000
15.8250000 0.3561417 1.0000000
15.8500000 0.3569022 1.0000000
15.8750000 0.3572595 1.0000000
15.9000000 0.3580100 1.0000000
15.9250000 0.3583773 1.0000000
15.9500000 0.3591175 1.0000000
15.9750000 0.3594951 1.0000000
16.0000000 0.3602250 1.0000000
16.0250000 0.3606128 1.0000000
16.0500000 0.3613322 1.0000000
16.0750000 0.3617304 1.0000000
16.1000000 0.3624393 1.0000000
16.1250000 0.3628480 1.0000000
16.1500000 0.3635462 1.0000000
16.1750000 0.3639656 1.0000000
16.2000000 0.3646530 1.0000000
16.2250000 0.3650831 1.0000000
16.2500000 0.3657597 1.0000000
16.2750000 0.3662005 1.0000000
16.3000000 0.3668662 1.0000000
16.3250000 0.3673178 1.0000000
16.3500000 0.3679726 1.0000000
16.3750000 0.3684350 1.0000000
16.4000000 0.3690788 1.0000000
16.4250000 0.3695521 1.0000000
16.4500000 0.3701850 1.0000000
16.4750000 0.3706692 1.0000000
16.5000000 0.3712910 1.0000000
16.5250000 0.3717861 1.0000000
16.5500000 0.3723969 1.0000000
16.5750000 0.3729029 1.0000000
16.6000000 0.3735027 1.0000000
16.6250000 0.3740196 1.0000000
16.6500000 0.3746085 1.0000000
16.6750000 0.3751362 1.0000000
16.7000000 0.3757141 1.0000000
16.7250000 0.3762526 1.0000000
16.7500000 0.3768196 1.0000000
16.7750000 0.3773689 1.0000000
16.8000000 0.3779251 1.0000000
16.8250000 0.3784851 1.0000000
16.8500000 0.3790305 1.0000000
16.8750000 0.3796011 1.0000000
16.9000000 0.3801358 1.0000000
16.9250000 0.3807170 1.0000000
16.9500000 0.3812410 1.0000000
16.9750000 0.3818327 1.0000000
17.0000000 0.3823462 1.0000000
17.0250000 0.3829482 1.0000000
17.0500000 0.3834513 1.0000000
17.0750000 0.3840635 1.0000000
17.1000000 0.3845564 1.0000000
17.1250000 0.3851787 1.0000000
17.1500000 0.3856614 1.0000000
17.1750000 0.3862937 1.0000000
17.2000000 0.3867664 1.0000000
17.2250000 0.3874086 1.0000000
17.2500000 0.3878714 1.0000000
17.2750000 0.3885232 1.0000000
17.3000000 0.3889763 1.0000000
17.3250000 0.3896376 1.0000000
17.3500000 0.3900811 1.0000000
17.3750000 0.3907518 1.0000000
17.4000000 0.3911860 1.0000000
17.4250000 0.3918659 1.0000000
17.4500000 0.3922908 1.0000000
17.4750000 0.3929797 1.0000000
17.5000000 0.3933957 1.0000000
17.5250000 0.3940933 1.0000000
17.5500000 0.3945005 1.0000000
17.5750000 0.3952067 1.0000000
17.6000000 0.3956053 1.0000000
17.6250000 0.3963198 1.0000000
17.6500000 0.3967101 1.0000000
17.6750000 0.3974327 1.0000000
17.7000000 0.3978148 1.0000000
17.7250000 0.3985454 1.0000000
17.7500000 0.3989196 1.0000000
17.7750000 0.3996579 1.0000000
17.8000000 0.4000244 1.0000000
17.8250000 0.4007701 1.0000000
17.8500000 0.4011292 1.0000000
17.8750000 0.4018821 1.0000000
17.9000000 0.4022340 1.0000000
17.9250000 0.4029938 1.0000000
17.9500000 0.4033388 1.0000000
17.9750000 0.4041053 1.0000000
18.0000000 0.4044437 1.0000000
18.0250000 0.4052165 1.0000000
18.0500000 0.4055485 1.0000000
18.0750000 0.4063275 1.0000000
18.1000000 0.4066534 1.0000000
18.1250000 0.4074382 1.0000000
18.1500000 0.4077583 1.0000000
18.1750000 0.4085486 1.0000000
18.2000000 0.4088632 1.0000000
18.2250000 0.4096588 1.0000000
18.2500000 0.4099681 1.0000000
18.2750000 0.4107688 1.0000000
18.3000000 0.4110731 1.0000000
18.3250000 0.4118784 1.0000000
18.3500000 0.4121781 1.0000000
18.3750000 0.4129878 1.0000000
18.4000000 0.4132831 1.0000000
18.4250000 0.4140969 1.0000000
18.4500000 0.4143881 1.0000000
18.4750000 0.4152058 1.0000000
18.5000000 0.4154932 1.0000000
18.5250000 0.4163143 1.0000000
18.5500000 0.4165983 1.0000000
18.5750000 0.4174226 1.0000000
18.6000000 0.4177035 1.0000000
18.6250000 0.4185306 1.0000000
18.6500000 0.4188086 1.0000000
18.6750000 0.4196384 1.0000000
18.7000000 0.4199139 1.0000000
18.7250000 0.4207458 1.0000000
18.7500000 0.4210191 1.0000000
18.7750000 0.4218530 1.0000000
18.8000000 0.4221244 1.0000000
18.8250000 0.4229599 1.0000000
18.8500000 0.4232297 1.0000000
18.8750000 0.4240665 1.0000000
18.9000000 0.4243350 1.0000000
18.9250000 0.4251729 1.0000000
18.9500000 0.4254404 1.0000000
18.9750000 0.4262789 1.0000000
19.0000000 0.4265458 1.0000000
19.0250000 0.4273847 1.0000000
19.0500000 0.4276512 1.0000000
19.0750000 0.4284902 1.0000000
19.1000000 0.4287566 1.0000000
19.1250000 0.4295955 1.0000000
19.1500000 0.4298621 1.0000000
19.1750000 0.4307004 1.0000000
19.2000000 0.4309676 1.0000000
19.2250000 0.4318051 1.0000000
19.2500000 0.4320732 1.0000000
19.2750000 0.4329095 1.0000000
19.3000000 0.4331787 1.0000000
19.3250000 0.4340136 1.0000000
19.3500000 0.4342843 1.0000000
19.3750000 0.4351174 1.0000000
19.4000000 0.4353899 1.0000000
19.4250000 0.4362210 1.0000000
19.4500000 0.4364955 1.0000000
19.4750000 0.4373243 1.0000000
19.5000000 0.4376011 1.0000000
19.5250000 0.4384273 1.0000000
19.5500000 0.4387068 1.0000000
19.5750000 0.4395301 1.0000000
19.6000000 0.4398124 1.0000000
19.6250000 0.4406326 1.0000000
19.6500000 0.4409181 1.0000000
19.6750000 0.4417348 1.0000000
19.7000000 0.4420237 1.0000000
19.7250000 0.4428368 1.0000000
19.7500000 0.4431294 1.0000000
19.7750000 0.4439385 1.0000000
19.8000000 0.4442350 1.0000000
19.8250000 0.4450400 1.0000000
19.8500000 0.4453407 1.0000000
19.8750000 0.4461412 1.0000000
19.9000000 0.4464463 1.0000000
19.9250000 0.4472421 1.0000000
19.9500000 0.4475520 1.0000000
19.9750000 0.4483428 1.0000000
20.0000000 0.4486576 1.0000000
20.0250000 0.4494433 1.0000000
20.0500000 0.4497632 1.0000000
20.0750000 0.4505435 1.0000000
20.1000000 0.4508688 1.0000000
20.1250000 0.4516435 1.0000000
20.1500000 0.4519743 1.0000000
20.1750000 0.4527432 1.0000000
20.2000000 0.4530799 1.0000000
20.2250000 0.4538428 1.0000000
20.2500000 0.4541853 1.0000000
20.2750000 0.4549420 1.0000000
20.3000000 0.4552908 1.0000000
20.3250000 0.4560411 1.0000000
20.3500000 0.4563962 1.0000000
20.3750000 0.4571399 1.0000000
20.4000000 0.4575016 1.0000000
20.4250000 0.4582385 1.0000000
20.4500000 0.4586069 1.0000000
20.4750000 0.4593369 1.0000000
20.5000000 0.4597121 1.0000000
20.5250000 0.4604351 1.0000000
20.5500000 0.4608173 1.0000000
20.5750000 0.4615331 1.0000000
20.6000000 0.4619225 1.0000000
20.6250000 0.4626309 1.0000000
20.6500000 0.4630275 1.0000000
20.6750000 0.4637285 1.0000000
20.7000000 0.4641325 1.0000000
20.7250000 0.4648259 1.0000000
20.7500000 0.4652374 1.0000000
20.7750000 0.4659231 1.0000000
20.8000000 0.4663423 1.0000000
20.8250000 0.4670201 1.0000000
20.8500000 0.4674470 1.0000000
20.8750000 0.4681169 1.0000000
20.9000000 0.4685517 1.0000000
20.9250000 0.4692135 1.0000000
20.9500000 0.4696562 1.0000000
20.9750000 0.4703100 1.0000000
21.0000000 0.4707607 1.0000000
21.0250000 0.4714063 1.0000000
21.0500000 0.4718650 1.0000000
21.0750000 0.4725024 1.0000000
21.1000000 0.4729693 1.0000000
21.1250000 0.4735984 1.0000000
21.1500000 0.4740734 1.0000000
21.1750000 0.4746942 1.0000000
21.2000000 0.4751774 1.0000000
21.2250000 0.4757899 1.0000000
21.2500000 0.4762813 1.0000000
21.2750000 0.4768854 1.0000000
21.3000000 0.4773850 1.0000000
21.3250000 0.4779807 1.0000000
21.3500000 0.4784887 1.0000000
21.3750000 0.4790759 1.0000000
21.4000000 0.4795921 1.0000000
21.4250000 0.4801710 1.0000000
21.4500000 0.4806955 1.0000000
21.4750000 0.4812660 1.0000000
21.5000000 0.4817987 1.0000000
21.5250000 0.4823608 1.0000000
21.5500000 0.4829017 1.0000000
21.5750000 0.4834555 1.0000000
21.6000000 0.4840046 1.0000000
21.6250000 0.4845501 1.0000000
21.6500000 0.4851073 1.0000000
21.6750000 0.4856445 1.0000000
21.7000000 0.4862098 1.0000000
21.7250000 0.4867389 1.0000000
21.7500000 0.4873122 1.0000000
21.7750000 0.4878331 1.0000000
21.8000000 0.4884144 1.0000000
21.8250000 0.4889272 1.0000000
21.8500000 0.4895164 1.0000000
21.8750000 0.4900213 1.0000000
21.9000000 0.4906183 1.0000000
21.9250000 0.4911152 1.0000000
21.9500000 0.4917199 1.0000000
21.9750000 0.4922090 1.0000000
22.0000000 0.4928214 1.0000000
22.0250000 0.4933028 1.0000000
22.0500000 0.4939226 1.0000000
22.0750000 0.4943964 1.0000000
22.1000000 0.4950237 1.0000000
22.1250000 0.4954900 1.0000000
22.1500000 0.4961245 1.0000000
22.1750000 0.4965835 1.0000000
22.2000000 0.4972252 1.0000000
22.2250000 0.4976769 1.0000000
22.2500000 0.4983256 1.0000000
22.2750000 0.4987702 1.0000000
22.3000000 0.4994258 1.0000000
22.3250000 0.4998635 1.0000000
22.3500000 0.5005258 1.0000000
22.3750000 0.5009567 1.0000000
22.4000000 0.5016256 1.0000000
22.4250000 0.5020498 1.0000000
22.4500000 0.5027251 1.0000000
22.4750000 0.5031429 1.0000000
22.5000000 0.5038245 1.0000000
22.5250000 0.5042359 1.0000000
22.5500000 0.5049235 1.0000000
22.5750000 0.5053289 1.0000000
22.6000000 0.5060224 1.0000000
22.6250000 0.5064218 1.0000000
22.6500000 0.5071210 1.0000000
22.6750000 0.5075146 1.0000000
22.7000000 0.5082194 1.0000000
22.7250000 0.5086074 1.0000000
22.7500000 0.5093175 1.0000000
22.7750000 0.5097002 1.0000000
22.8000000 0.5104153 1.0000000
22.8250000 0.5107929 1.0000000
22.8500000 0.5115130 1.0000000
22.8750000 0.5118855 1.0000000
22.9000000 0.5126103 1.0000000
22.9250000 0.5129782 1.0000000
22.9500000 0.5137075 1.0000000
22.9750000 0.5140707 1.0000000
23.0000000 0.5148043 1.0000000
23.0250000 0.5151633 1.0000000
23.0500000 0.5159009 1.0000000
23.0750000 0.5162558 1.0000000
23.1000000 0.5169972 1.0000000
23.1250000 0.5173482 1.0000000
23.1500000 0.5180933 1.0000000
23.1750000 0.5184407 1.0000000
23.2000000 0.5191891 1.0000000
23.2250000 0.5195331 1.0000000
23.2500000 0.5202847 1.0000000
23.2750000 0.5206254 1.0000000
23.3000000 0.5213800 1.0000000
23.3250000 0.5217178 1.0000000
23.3500000 0.5224750 1.0000000
23.3750000 0.5228101 1.0000000
23.4000000 0.5235697 1.0000000
23.4250000 0.5239023 1.0000000
23.4500000 0.5246642 1.0000000
23.4750000 0.5249946 1.0000000
23.5000000 0.5257584 1.0000000
23.5250000 0.5260868 1.0000000
23.5500000 0.5268523 1.0000000
23.5750000 0.5271790 1.0000000
23.6000000 0.5279459 1.0000000
23.6250000 0.5282711 1.0000000
23.6500000 0.5290393 1.0000000
23.6750000 0.5293632 1.0000000
23.7000000 0.5301324 1.0000000
23.7250000 0.5304553 1.0000000
23.7500000 0.5312252 1.0000000
23.7750000 0.5315474 1.0000000
23.8000000 0.5323178 1.0000000
23.8250000 0.5326394 1.0000000
23.8500000 0.5334101 1.0000000
23.8750000 0.5337314 1.0000000
23.9000000 0.5345021 1.0000000
23.9250000 0.5348233 1.0000000
23.9500000 0.5355938 1.0000000
23.9750000 0.5359153 1.0000000
24.0000000 0.5366853 1.0000000
24.0250000 0.5370072 1.0000000
24.0500000 0.5377765 1.0000000
24.0750000 0.5380990 1.0000000
24.1000000 0.5388674 1.0000000
24.1250000 0.5391908 1.0000000
24.1500000 0.5399580 1.0000000
24.1750000 0.5402826 1.0000000
24.2000000 0.5410484 1.0000000
24.2250000 0.5413744 1.0000000
24.2500000 0.5421385 1.0000000
24.2750000 0.5424661 1.0000000
24.3000000 0.5432283 1.0000000
24.3250000 0.5435577 1.0000000
24.3500000 0.5443179 1.0000000
24.3750000 0.5446493 1.0000000
24.4000000 0.5454072 1.0000000
24.4250000 0.5457409 1.0000000
24.4500000 0.5464962 1.0000000
24.4750000 0.5468324 1.0000000
24.5000000 0.5475850 1.0000000
24.5250000 0.5479239 1.0000000
24.5500000 0.5486735 1.0000000
24.5750000 0.5490153 1.0000000
24.6000000 0.5497618 1.0000000
24.6250000 0.5501066 1.0000000
24.6500000 0.5508498 1.0000000
24.6750000 0.5511979 1.0000000
24.7000000 0.5519375 1.0000000
24.7250000 0.5522892 1.0000000
24.7500000 0.5530250 1.0000000
24.7750000 0.5533803 1.0000000
24.8000000 0.5541122 1.0000000
24.8250000 0.5544714 1.0000000
24.8500000 0.5551992 1.0000000
24.8750000 0.5555625 1.0000000
24.9000000 0.5562859 1.0000000
24.9250000 0.5566534 1.0000000
24.9500000 0.5573724 1.0000000
24.9750000 0.5577443 1.0000000
25.0000000 0.5584587 1.0000000
25.0250000 0.5588351 1.0000000
25.0500000 0.5595447 1.0000000
25.0750000 0.5599259 1.0000000
25.1000000 0.5606305 1.0000000
25.1250000 0.5610165 1.0000000
25.1500000 0.5617160 1.0000000
25.1750000 0.5621071 1.0000000
25.2000000 0.5628013 1.0000000
25.2250000 0.5631976 1.0000000
25.2500000 0.5638864 1.0000000
25.2750000 0.5642879 1.0000000
25.3000000 0.5649712 1.0000000
25.3250000 0.5653782 1.0000000
25.3500000 0.5660559 1.0000000
25.3750000 0.5664684 1.0000000
25.4000000 0.5671403 1.0000000
25.4250000 0.5675585 1.0000000
25.4500000 0.5682245 1.0000000
25.4750000 0.5686484 1.0000000
25.5000000 0.5693084 1.0000000
25.5250000 0.5697383 1.0000000
25.5500000 0.5703922 1.0000000
25.5750000 0.5708280 1.0000000
25.6000000 0.5714758 1.0000000
25.6250000 0.5719177 1.0000000
25.6500000 0.5725591 1.0000000
25.6750000 0.5730072 1.0000000
25.7000000 0.5736423 1.0000000
25.7250000 0.5740965 1.0000000
25.7500000 0.5747252 1.0000000
25.7750000 0.5751858 1.0000000
25.8000000 0.5758080 1.0000000
25.8250000 0.5762749 1.0000000
25.8500000 0.5768906 1.0000000
25.8750000 0.5773638 1.0000000
25.9000000 0.5779729 1.0000000
25.9250000 0.5784527 1.0000000
25.9500000 0.5790551 1.0000000
25.9750000 0.5795414 1.0000000
26.0000000 0.5801372 1.0000000
26.0250000 0.5806299 1.0000000
26.0500000 0.5812190 1.0000000
26.0750000 0.5817183 1.0000000
26.1000000 0.5823007 1.0000000
26.1250000 0.5828065 1.0000000
26.1500000 0.5833822 1.0000000
26.1750000 0.5838946 1.0000000
26.2000000 0.5844635 1.0000000
26.2250000 0.5849825 1.0000000
26.2500000 0.5855446 1.0000000
26.2750000 0.5860702 1.0000000
26.3000000 0.5866256 1.0000000
26.3250000 0.5871577 1.0000000
26.3500000 0.5877065 1.0000000
26.3750000 0.5882451 1.0000000
26.4000000 0.5887872 1.0000000
26.4250000 0.5893323 1.0000000
26.4500000 0.5898677 1.0000000
26.4750000 0.5904193 1.0000000
26.5000000 0.5909481 1.0000000
26.5250000 0.5915062 1.0000000
26.5500000 0.5920283 1.0000000
26.5750000 0.5925928 1.0000000
26.6000000 0.5931084 1.0000000
26.6250000 0.5936793 1.0000000
26.6500000 0.5941884 1.0000000
26.6750000 0.5947655 1.0000000
26.7000000 0.5952682 1.0000000
26.7250000 0.5958516 1.0000000
26.7500000 0.5963479 1.0000000
26.7750000 0.5969374 1.0000000
26.8000000 0.5974274 1.0000000
26.8250000 0.5980230 1.0000000
26.8500000 0.5985069 1.0000000
26.8750000 0.5991085 1.0000000
26.9000000 0.5995862 1.0000000
26.9250000 0.6001937 1.0000000
26.9500000 0.6006653 1.0000000
26.9750000 0.6012786 1.0000000
27.0000000 0.6017444 1.0000000
27.0250000 0.6023634 1.0000000
27.0500000 0.6028234 1.0000000
27.0750000 0.6034480 1.0000000
27.1000000 0.6039022 1.0000000
27.1250000 0.6045323 1.0000000
27.1500000 0.6049809 1.0000000
27.1750000 0.6056164 1.0000000
27.2000000 0.6060595 1.0000000
27.2250000 0.6067002 1.0000000
27.2500000 0.6071380 1.0000000
27.2750000 0.6077838 1.0000000
27.3000000 0.6082164 1.0000000
27.3250000 0.6088672 1.0000000
27.3500000 0.6092947 1.0000000
27.3750000 0.6099503 1.0000000
27.4000000 0.6103729 1.0000000
27.4250000 0.6110332 1.0000000
27.4500000 0.6114510 1.0000000
27.4750000 0.6121159 1.0000000
27.5000000 0.6125290 1.0000000
27.5250000 0.6131983 1.0000000
27.5500000 0.6136069 1.0000000
27.5750000 0.6142804 1.0000000
27.6000000 0.6146848 1.0000000
27.6250000 0.6153623 1.0000000
27.6500000 0.6157625 1.0000000
27.6750000 0.6164439 1.0000000
27.7000000 0.6168401 1.0000000
27.7250000 0.6175253 1.0000000
27.7500000 0.6179177 1.0000000
27.7750000 0.6186064 1.0000000
27.8000000 0.6189951 1.0000000
27.8250000 0.6196873 1.0000000
27.8500000 0.6200725 1.0000000
27.8750000 0.6207679 1.0000000
27.9000000 0.6211498 1.0000000
27.9250000 0.6218482 1.0000000
27.9500000 0.6222270 1.0000000
27.9750000 0.6229283 1.0000000
28.0000000 0.6233041 1.0000000
28.0250000 0.6240081 1.0000000
28.0500000 0.6243812 1.0000000
28.0750000 0.6250876 1.0000000
28.1000000 0.6254582 1.0000000
28.1250000 0.6261669 1.0000000
28.1500000 0.6265350 1.0000000
28.1750000 0.6272459 1.0000000
28.2000000 0.6276119 1.0000000
28.2250000 0.6283246 1.0000000
28.2500000 0.6286886 1.0000000
28.2750000 0.6294030 1.0000000
28.3000000 0.6297652 1.0000000
28.3250000 0.6304812 1.0000000
28.3500000 0.6308418 1.0000000
28.3750000 0.6315591 1.0000000
28.4000000 0.6319183 1.0000000
28.4250000 0.6326367 1.0000000
28.4500000 0.6329947 1.0000000
28.4750000 0.6337141 1.0000000
28.5000000 0.6340711 1.0000000
28.5250000 0.6347911 1.0000000
28.5500000 0.6351473 1.0000000
28.5750000 0.6358679 1.0000000
28.6000000 0.6362235 1.0000000
28.6250000 0.6369444 1.0000000
28.6500000 0.6372996 1.0000000
28.6750000 0.6380207 1.0000000
28.7000000 0.6383756 1.0000000
28.7250000 0.6390967 1.0000000
28.7500000 0.6394516 1.0000000
28.7750000 0.6401723 1.0000000
28.8000000 0.6405274 1.0000000
28.8250000 0.6412478 1.0000000
28.8500000 0.6416032 1.0000000
28.8750000 0.6423229 1.0000000
28.9000000 0.6426789 1.0000000
28.9250000 0.6433978 1.0000000
28.9500000 0.6437545 1.0000000
28.9750000 0.6444723 1.0000000
29.0000000 0.6448301 1.0000000
29.0250000 0.6455467 1.0000000
29.0500000 0.6459055 1.0000000
29.0750000 0.6466207 1.0000000
29.1000000 0.6469809 1.0000000
29.1250000 0.6476945 1.0000000
29.1500000 0.6480562 1.0000000
29.1750000 0.6487680 1.0000000
29.2000000 0.6491313 1.0000000
29.2250000 0.6498412 1.0000000
29.2500000 0.6502064 1.0000000
29.2750000 0.6509142 1.0000000
29.3000000 0.6512814 1.0000000
29.3250000 0.6519869 1.0000000
29.3500000 0.6523563 1.0000000
29.3750000 0.6530593 1.0000000
29.4000000 0.6534312 1.0000000
29.4250000 0.6541314 1.0000000
29.4500000 0.6545059 1.0000000
29.4750000 0.6552033 1.0000000
29.5000000 0.6555805 1.0000000
29.5250000 0.6562750 1.0000000
29.5500000 0.6566550 1.0000000
29.5750000 0.6573464 1.0000000
29.6000000 0.6577294 1.0000000
29.6250000 0.6584175 1.0000000
29.6500000 0.6588037 1.0000000
29.6750000 0.6594883 1.0000000
29.7000000 0.6598779 1.0000000
29.7250000 0.6605589 1.0000000
29.7500000 0.6609520 1.0000000
29.7750000 0.6616293 1.0000000
29.8000000 0.6620259 1.0000000
29.8250000 0.6626994 1.0000000
29.8500000 0.6630998 1.0000000
29.8750000 0.6637692 1.0000000
29.9000000 0.6641735 1.0000000
29.9250000 0.6648389 1.0000000
29.9500000 0.6652471 1.0000000
29.9750000 0.6659082 1.0000000
30.0000000 0.6663206 1.0000000
30.0250000 0.6669773 1.0000000
30.0500000 0.6673939 1.0000000
30.0750000 0.6680462 1.0000000
30.1000000 0.6684672 1.0000000
30.1250000 0.6691149 1.0000000
30.1500000 0.6695403 1.0000000
30.1750000 0.6701833 1.0000000
30.2000000 0.6706132 1.0000000
30.2250000 0.6712514 1.0000000
30.2500000 0.6716860 1.0000000
30.2750000 0.6723194 1.0000000
30.3000000 0.6727587 1.0000000
30.3250000 0.6733871 1.0000000
30.3500000 0.6738313 1.0000000
30.3750000 0.6744546 1.0000000
30.4000000 0.6749037 1.0000000
30.4250000 0.6755219 1.0000000
30.4500000 0.6759759 1.0000000
30.4750000 0.6765889 1.0000000
30.5000000 0.6770480 1.0000000
30.5250000 0.6776557 1.0000000
30.5500000 0.6781199 1.0000000
30.5750000 0.6787223 1.0000000
30.6000000 0.6791917 1.0000000
30.6250000 0.6797887 1.0000000
30.6500000 0.6802633 1.0000000
30.6750000 0.6808549 1.0000000
30.7000000 0.6813347 1.0000000
30.7250000 0.6819209 1.0000000
30.7500000 0.6824060 1.0000000
30.7750000 0.6829867 1.0000000
30.8000000 0.6834771 1.0000000
30.8250000 0.6840523 1.0000000
30.8500000 0.6845480 1.0000000
30.8750000 0.6851177 1.0000000
30.9000000 0.6856188 1.0000000
30.9250000 0.6861829 1.0000000
30.9500000 0.6866894 1.0000000
30.9750000 0.6872479 1.0000000
31.0000000 0.6877597 1.0000000
31.0250000 0.6883127 1.0000000
31.0500000 0.6888299 1.0000000
31.0750000 0.6893773 1.0000000
31.1000000 0.6898999 1.0000000
31.1250000 0.6904417 1.0000000
31.1500000 0.6909697 1.0000000
31.1750000 0.6915059 1.0000000
31.2000000 0.6920394 1.0000000
31.2250000 0.6925700 1.0000000
31.2500000 0.6931088 1.0000000
31.2750000 0.6936339 1.0000000
31.3000000 0.6941780 1.0000000
31.3250000 0.6946976 1.0000000
31.3500000 0.6952470 1.0000000
31.3750000 0.6957612 1.0000000
31.4000000 0.6963158 1.0000000
31.4250000 0.6968245 1.0000000
31.4500000 0.6973844 1.0000000
31.4750000 0.6978878 1.0000000
31.5000000 0.6984527 1.0000000
31.5250000 0.6989508 1.0000000
31.5500000 0.6995209 1.0000000
31.5750000 0.7000137 1.0000000
31.6000000 0.7005888 1.0000000
31.6250000 0.7010764 1.0000000
31.6500000 0.7016565 1.0000000
31.6750000 0.7021390 1.0000000
31.7000000 0.7027240 1.0000000
31.7250000 0.7032014 1.0000000
31.7500000 0.7037912 1.0000000
31.7750000 0.7042636 1.0000000
31.8000000 0.7048582 1.0000000
31.8250000 0.7053257 1.0000000
31.8500000 0.7059250 1.0000000
31.8750000 0.7063877 1.0000000
31.9000000 0.7069915 1.0000000
31.9250000 0.7074495 1.0000000
31.9500000 0.7080579 1.0000000
31.9750000 0.7085112 1.0000000
32.0000000 0.7091239 1.0000000
32.0250000 0.7095727 1.0000000
32.0500000 0.7101897 1.0000000
32.0750000 0.7106341 1.0000000
32.1000000 0.7112553 1.0000000
32.1250000 0.7116954 1.0000000
32.1500000 0.7123206 1.0000000
32.1750000 0.7127565 1.0000000
32.2000000 0.7133857 1.0000000
32.2250000 0.7138175 1.0000000
32.2500000 0.7144505 1.0000000
32.2750000 0.7148783 1.0000000
32.3000000 0.7155150 1.0000000
32.3250000 0.7159390 1.0000000
32.3500000 0.7165793 1.0000000
32.3750000 0.7169996 1.0000000
32.4000000 0.7176434 1.0000000
32.4250000 0.7180601 1.0000000
32.4500000 0.7187072 1.0000000
32.4750000 0.7191204 1.0000000
32.5000000 0.7197707 1.0000000
32.5250000 0.7201806 1.0000000
32.5500000 0.7208339 1.0000000
32.5750000 0.7212407 1.0000000
32.6000000 0.7218969 1.0000000
32.6250000 0.7223007 1.0000000
32.6500000 0.7229596 1.0000000
32.6750000 0.7233605 1.0000000
32.7000000 0.7240221 1.0000000
32.7250000 0.7244202 1.0000000
32.7500000 0.7250842 1.0000000
32.7750000 0.7254798 1.0000000
32.8000000 0.7261461 1.0000000
32.8250000 0.7265393 1.0000000
32.8500000 0.7272078 1.0000000
32.8750000 0.7275987 1.0000000
32.9000000 0.7282691 1.0000000
32.9250000 0.7286579 1.0000000
32.9500000 0.7293302 1.0000000
32.9750000 0.7297171 1.0000000
33.0000000 0.7303910 1.0000000
33.0250000 0.7307761 1.0000000
33.0500000 0.7314515 1.0000000
33.0750000 0.7318350 1.0000000
33.1000000 0.7325118 1.0000000
33.1250000 0.7328937 1.0000000
33.1500000 0.7335717 1.0000000
33.1750000 0.7339524 1.0000000
33.2000000 0.7346314 1.0000000
33.2250000 0.7350109 1.0000000
33.2500000 0.7356908 1.0000000
33.2750000 0.7360694 1.0000000
33.3000000 0.7367500 1.0000000
33.3250000 0.7371277 1.0000000
33.3500000 0.7378088 1.0000000
33.3750000 0.7381859 1.0000000
33.4000000 0.7388674 1.0000000
33.4250000 0.7392440 1.0000000
33.4500000 0.7399257 1.0000000
33.4750000 0.7403019 1.0000000
33.5000000 0.7409837 1.0000000
33.5250000 0.7413598 1.0000000
33.5500000 0.7420414 1.0000000
33.5750000 0.7424175 1.0000000
33.6000000 0.7430988 1.0000000
33.6250000 0.7434751 1.0000000
33.6500000 0.7441560 1.0000000
33.6750000 0.7445326 1.0000000
33.7000000 0.7452129 1.0000000
33.7250000 0.7455900 1.0000000
33.7500000 0.7462695 1.0000000
33.7750000 0.7466473 1.0000000
33.8000000 0.7473258 1.0000000
33.8250000 0.7477044 1.0000000
33.8500000 0.7483818 1.0000000
33.8750000 0.7487614 1.0000000
33.9000000 0.7494376 1.0000000
33.9250000 0.7498183 1.0000000
33.9500000 0.7504931 1.0000000
33.9750000 0.7508751 1.0000000
34.0000000 0.7515483 1.0000000
34.0250000 0.7519317 1.0000000
34.0500000 0.7526032 1.0000000
34.0750000 0.7529882 1.0000000
34.1000000 0.7536579 1.0000000
34.1250000 0.7540446 1.0000000
34.1500000 0.7547123 1.0000000
34.1750000 0.7551009 1.0000000
34.2000000 0.7557664 1.0000000
34.2250000 0.7561570 1.0000000
34.2500000 0.7568202 1.0000000
34.2750000 0.7572130 1.0000000
34.3000000 0.7578738 1.0000000
34.3250000 0.7582688 1.0000000
34.3500000 0.7589271 1.0000000
34.3750000 0.7593246 1.0000000
34.4000000 0.7599802 1.0000000
34.4250000 0.7603801 1.0000000
34.4500000 0.7610329 1.0000000
34.4750000 0.7614356 1.0000000
34.5000000 0.7620854 1.0000000
34.5250000 0.7624909 1.0000000
34.5500000 0.7631377 1.0000000
34.5750000 0.7635461 1.0000000
34.6000000 0.7641896 1.0000000
34.6250000 0.7646011 1.0000000
34.6500000 0.7652414 1.0000000
34.6750000 0.7656559 1.0000000
34.7000000 0.7662928 1.0000000
34.7250000 0.7667107 1.0000000
34.7500000 0.7673440 1.0000000
34.7750000 0.7677652 1.0000000
34.8000000 0.7683950 1.0000000
34.8250000 0.7688196 1.0000000
34.8500000 0.7694457 1.0000000
34.8750000 0.7698739 1.0000000
34.9000000 0.7704961 1.0000000
34.9250000 0.7709280 1.0000000
34.9500000 0.7715463 1.0000000
34.9750000 0.7719819 1.0000000
35.0000000 0.7725963 1.0000000
35.0250000 0.7730357 1.0000000
35.0500000 0.7736460 1.0000000
35.0750000 0.7740893 1.0000000
35.1000000 0.7746954 1.0000000
35.1250000 0.7751427 1.0000000
35.1500000 0.7757447 1.0000000
35.1750000 0.7761960 1.0000000
35.2000000 0.7767936 1.0000000
35.2250000 0.7772491 1.0000000
35.2500000 0.7778424 1.0000000
35.2750000 0.7783020 1.0000000
35.3000000 0.7788909 1.0000000
35.3250000 0.7793547 1.0000000
35.3500000 0.7799392 1.0000000
35.3750000 0.7804073 1.0000000
35.4000000 0.7809872 1.0000000
35.4250000 0.7814597 1.0000000
35.4500000 0.7820351 1.0000000
35.4750000 0.7825118 1.0000000
35.5000000 0.7830827 1.0000000
35.5250000 0.7835638 1.0000000
35.5500000 0.7841300 1.0000000
35.5750000 0.7846156 1.0000000
35.6000000 0.7851772 1.0000000
35.6250000 0.7856672 1.0000000
35.6500000 0.7862241 1.0000000
35.6750000 0.7867187 1.0000000
35.7000000 0.7872708 1.0000000
35.7250000 0.7877699 1.0000000
35.7500000 0.7883173 1.0000000
35.7750000 0.7888209 1.0000000
35.8000000 0.7893636 1.0000000
35.8250000 0.7898717 1.0000000
35.8500000 0.7904097 1.0000000
35.8750000 0.7909223 1.0000000
35.9000000 0.7914556 1.0000000
35.9250000 0.7919727 1.0000000
35.9500000 0.7925013 1.0000000
35.9750000 0.7930228 1.0000000
36.0000000 0.7935467 1.0000000
36.0250000 0.7940728 1.0000000
36.0500000 0.7945920 1.0000000
36.0750000 0.7951225 1.0000000
36.1000000 0.7956371 1.0000000
36.1250000 0.7961720 1.0000000
36.1500000 0.7966820 1.0000000
36.1750000 0.7972213 1.0000000
36.2000000 0.7977266 1.0000000
36.2250000 0.7982704 1.0000000
36.2500000 0.7987711 1.0000000
36.2750000 0.7993192 1.0000000
36.3000000 0.7998154 1.0000000
36.3250000 0.8003679 1.0000000
36.3500000 0.8008596 1.0000000
36.3750000 0.8014162 1.0000000
36.4000000 0.8019035 1.0000000
36.4250000 0.8024644 1.0000000
36.4500000 0.8029472 1.0000000
36.4750000 0.8035123 1.0000000
36.5000000 0.8039908 1.0000000
36.5250000 0.8045599 1.0000000
36.5500000 0.8050342 1.0000000
36.5750000 0.8056073 1.0000000
36.6000000 0.8060774 1.0000000
36.6250000 0.8066545 1.0000000
36.6500000 0.8071204 1.0000000
36.6750000 0.8077014 1.0000000
36.7000000 0.8081633 1.0000000
36.7250000 0.8087481 1.0000000
36.7500000 0.8092060 1.0000000
36.7750000 0.8097945 1.0000000
36.8000000 0.8102485 1.0000000
36.8250000 0.8108407 1.0000000
36.8500000 0.8112909 1.0000000
36.8750000 0.8118866 1.0000000
36.9000000 0.8123330 1.0000000
36.9250000 0.8129323 1.0000000
36.9500000 0.8133751 1.0000000
36.9750000 0.8139777 1.0000000
37.0000000 0.8144169 1.0000000
37.0250000 0.8150228 1.0000000
37.0500000 0.8154586 1.0000000
37.0750000 0.8160677 1.0000000
37.1000000 0.8165001 1.0000000
37.1250000 0.8171123 1.0000000
37.1500000 0.8175415 1.0000000
37.1750000 0.8181566 1.0000000
37.2000000 0.8185827 1.0000000
37.2250000 0.8192007 1.0000000
37.2500000 0.8196238 1.0000000
37.2750000 0.8202445 1.0000000
37.3000000 0.8206647 1.0000000
37.3250000 0.8212880 1.0000000
37.3500000 0.8217055 1.0000000
37.3750000 0.8223313 1.0000000
37.4000000 0.8227460 1.0000000
37.4250000 0.8233742 1.0000000
37.4500000 0.8237865 1.0000000
37.4750000 0.8244170 1.0000000
37.5000000 0.8248268 1.0000000
37.5250000 0.8254594 1.0000000
37.5500000 0.8258669 1.0000000
37.5750000 0.8265015 1.0000000
37.6000000 0.8269069 1.0000000
37.6250000 0.8275434 1.0000000
37.6500000 0.8279468 1.0000000
37.6750000 0.8285850 1.0000000
37.7000000 0.8289865 1.0000000
37.7250000 0.8296263 1.0000000
37.7500000 0.8300260 1.0000000
37.7750000 0.8306673 1.0000000
37.8000000 0.8310654 1.0000000
37.8250000 0.8317081 1.0000000
37.8500000 0.8321047 1.0000000
37.8750000 0.8327485 1.0000000
37.9000000 0.8331438 1.0000000
37.9250000 0.8337887 1.0000000
37.9500000 0.8341827 1.0000000
37.9750000 0.8348286 1.0000000
38.0000000 0.8352215 1.0000000
38.0250000 0.8358682 1.0000000
38.0500000 0.8362602 1.0000000
38.0750000 0.8369075 1.0000000
38.1000000 0.8372987 1.0000000
38.1250000 0.8379466 1.0000000
38.1500000 0.8383371 1.0000000
38.1750000 0.8389853 1.0000000
38.2000000 0.8393753 1.0000000
38.2250000 0.8400238 1.0000000
38.2500000 0.8404134 1.0000000
38.2750000 0.8410620 1.0000000
38.3000000 0.8414513 1.0000000
38.3250000 0.8420999 1.0000000
38.3500000 0.8424891 1.0000000
38.3750000 0.8431375 1.0000000
38.4000000 0.8435268 1.0000000
38.4250000 0.8441748 1.0000000
38.4500000 0.8445643 1.0000000
38.4750000 0.8452118 1.0000000
38.5000000 0.8456016 1.0000000
38.5250000 0.8462486 1.0000000
38.5500000 0.8466388 1.0000000
38.5750000 0.8472850 1.0000000
38.6000000 0.8476758 1.0000000
38.6250000 0.8483212 1.0000000
38.6500000 0.8487127 1.0000000
38.6750000 0.8493571 1.0000000
38.7000000 0.8497495 1.0000000
38.7250000 0.8503927 1.0000000
38.7500000 0.8507861 1.0000000
38.7750000 0.8514281 1.0000000
38.8000000 0.8518225 1.0000000
38.8250000 0.8524631 1.0000000
38.8500000 0.8528588 1.0000000
38.8750000 0.8534979 1.0000000
38.9000000 0.8538949 1.0000000
38.9250000 0.8545324 1.0000000
38.9500000 0.8549309 1.0000000
38.9750000 0.8555666 1.0000000
39.0000000 0.8559667 1.0000000
39.0250000 0.8566005 1.0000000
39.0500000 0.8570023 1.0000000
39.0750000 0.8576341 1.0000000
39.1000000 0.8580378 1.0000000
39.1250000 0.8586675 1.0000000
39.1500000 0.8590731 1.0000000
39.1750000 0.8597006 1.0000000
39.2000000 0.8601083 1.0000000
39.2250000 0.8607334 1.0000000
39.2500000 0.8611433 1.0000000
39.2750000 0.8617659 1.0000000
39.3000000 0.8621781 1.0000000
39.3250000 0.8627982 1.0000000
39.3500000 0.8632128 1.0000000
39.3750000 0.8638302 1.0000000
39.4000000 0.8642473 1.0000000
39.4250000 0.8648619 1.0000000
39.4500000 0.8652816 1.0000000
39.4750000 0.8658934 1.0000000
39.5000000 0.8663158 1.0000000
39.5250000 0.8669246 1.0000000
39.5500000 0.8673497 1.0000000
39.5750000 0.8679555 1.0000000
39.6000000 0.8683835 1.0000000
39.6250000 0.8689862 1.0000000
39.6500000 0.8694171 1.0000000
39.6750000 0.8700166 1.0000000
39.7000000 0.8704506 1.0000000
39.7250000 0.8710467 1.0000000
39.7500000 0.8714838 1.0000000
39.7750000 0.8720766 1.0000000
39.8000000 0.8725169 1.0000000
39.8250000 0.8731062 1.0000000
39.8500000 0.8735498 1.0000000
39.8750000 0.8741356 1.0000000
39.9000000 0.8745825 1.0000000
39.9250000 0.8751647 1.0000000
39.9500000 0.8756150 1.0000000
39.9750000 0.8761936 1.0000000


40.0000000 0.8766473 1.0000000
50.0000000 1.0746808 1.0000000
100.0000000 1.9035440 1.0000000
150.0000000 2.4892006 1.0000000
200.0000000 2.9242345 1.0000000
250.0000000 3.2674509 1.0000000
300.0000000 3.5486243 1.0000000
350.0000000 3.7988747 1.0000000
400.0000000 4.0349442 1.0000000
450.0000000 4.2374711 1.0000000
500.0000000 4.4163827 1.0000000
550.0000000 4.6061197 1.0000000
600.0000000 4.7880251 1.0000000
650.0000000 4.9522999 1.0000000
700.0000000 5.1038807 1.0000000
750.0000000 5.2514102 1.0000000
800.0000000 5.3957195 1.0000000
850.0000000 5.5332279 1.0000000
900.0000000 5.6614916 1.0000000
950.0000000 5.7700671 1.0000000
1000.0000000 5.8621252 1.0000000
1050.0000000 5.9557823 1.0000000
1100.0000000 6.0576086 1.0000000
1150.0000000 6.1589253 1.0000000
1200.0000000 6.2558086 1.0000000
1250.0000000 6.3553608 1.0000000
1300.0000000 6.4505363 1.0000000
1350.0000000 6.5259381 1.0000000
1400.0000000 6.5897120 1.0000000
1450.0000000 6.6542621 1.0000000
1500.0000000 6.7307108 1.0000000
1550.0000000 6.8142280 1.0000000
1600.0000000 6.8922162 1.0000000
1650.0000000 6.9556505 1.0000000
1700.0000000 7.0151287 1.0000000
1750.0000000 7.0830560 1.0000000
1800.0000000 7.1553099 1.0000000
1850.0000000 7.2264476 1.0000000
1900.0000000 7.2968333 1.0000000
1950.0000000 7.3629048 1.0000000
2000.0000000 7.4224410 1.0000000
2050.0000000 7.4829725 1.0000000
2100.0000000 7.5449915 1.0000000
2150.0000000 7.6023110 1.0000000
2200.0000000 7.6589150 1.0000000
2250.0000000 7.7226787 1.0000000
2300.0000000 7.7838994 1.0000000
2350.0000000 7.8313888 1.0000000
2400.0000000 7.8746081 1.0000000
2450.0000000 7.9265218 1.0000000
2500.0000000 7.9851726 1.0000000
2550.0000000 8.0443727 1.0000000
2600.0000000 8.1030528 1.0000000
2650.0000000 8.1577012 1.0000000
2700.0000000 8.2104227 1.0000000
2750.0000000 8.2653417 1.0000000
2800.0000000 8.3183756 1.0000000
2850.0000000 8.3682890 1.0000000
2900.0000000 8.4181655 1.0000000
2950.0000000 8.4688663 1.0000000
3000.0000000 8.5194284 1.0000000
3050.0000000 8.5691499 1.0000000
3100.0000000 8.6140537 1.0000000
3150.0000000 8.6576249 1.0000000
3200.0000000 8.7076862 1.0000000
3250.0000000 8.7612834 1.0000000
3300.0000000 8.8121855 1.0000000
3350.0000000 8.8611900 1.0000000
3400.0000000 8.9095537 1.0000000
3450.0000000 8.9615438 1.0000000
3500.0000000 9.0148735 1.0000000
3550.0000000 9.0585322 1.0000000
3600.0000000 9.0929455 1.0000000
3650.0000000 9.1308466 1.0000000
3700.0000000 9.1742949 1.0000000
3750.0000000 9.2208176 1.0000000
3800.0000000 9.2668936 1.0000000
3850.0000000 9.3029189 1.0000000
3900.0000000 9.3350619 1.0000000
3950.0000000 9.3754108 1.0000000
4000.0000000 9.4232002 1.0000000
4050.0000000 9.4646718 1.0000000
4100.0000000 9.5041346 1.0000000
4150.0000000 9.5477935 1.0000000
4200.0000000 9.5877527 1.0000000
4250.0000000 9.6255261 1.0000000
4300.0000000 9.6669876 1.0000000
4350.0000000 9.7069244 1.0000000
4400.0000000 9.7445008 1.0000000
4450.0000000 9.7820649 1.0000000
4500.0000000 9.8216268 1.0000000
4550.0000000 9.8611029 1.0000000
4600.0000000 9.8999805 1.0000000
4650.0000000 9.9445669 1.0000000
4700.0000000 9.9925601 1.0000000
4750.0000000 10.0358195 1.0000000
4800.0000000 10.0694436 1.0000000
4850.0000000 10.1017815 1.0000000
4900.0000000 10.1373812 1.0000000
4950.0000000 10.1753109 1.0000000
5000.0000000 10.2156823 1.0000000
5050.0000000 10.2540786 1.0000000
5100.0000000 10.2854782 1.0000000
5150.0000000 10.3163545 1.0000000
5200.0000000 10.3490341 1.0000000
5250.0000000 10.3821203 1.0000000
5300.0000000 10.4140182 1.0000000
5350.0000000 10.4433517 1.0000000
5400.0000000 10.4694112 1.0000000
5450.0000000 10.4948879 1.0000000
5500.0000000 10.5221581 1.0000000
5550.0000000 10.5496280 1.0000000
5600.0000000 10.5797903 1.0000000
5650.0000000 10.6113279 1.0000000
5700.0000000 10.6429146 1.0000000
5750.0000000 10.6738789 1.0000000
5800.0000000 10.7036836 1.0000000
5850.0000000 10.7307218 1.0000000
5900.0000000 10.7612576 1.0000000
5950.0000000 10.7954287 1.0000000
6000.0000000 10.8297233 1.0000000
6050.0000000 10.8597944 1.0000000
6100.0000000 10.8874823 1.0000000
6150.0000000 10.9153007 1.0000000
6200.0000000 10.9478638 1.0000000
6250.0000000 10.9815050 1.0000000
6300.0000000 11.0112596 1.0000000
6350.0000000 11.0420649 1.0000000
6400.0000000 11.0758219 1.0000000
6450.0000000 11.1068205 1.0000000
6500.0000000 11.1339676 1.0000000
6550.0000000 11.1620981 1.0000000
6600.0000000 11.1901113 1.0000000
6650.0000000 11.2160966 1.0000000
6700.0000000 11.2403647 1.0000000
6750.0000000 11.2629039 1.0000000
6800.0000000 11.2843591 1.0000000
6850.0000000 11.3088742 1.0000000
6900.0000000 11.3393441 1.0000000
6950.0000000 11.3712442 1.0000000
7000.0000000 11.3959644 1.0000000
7050.0000000 11.4176746 1.0000000
7100.0000000 11.4404206 1.0000000
7150.0000000 11.4656599 1.0000000
7200.0000000 11.4886721 1.0000000
7250.0000000 11.5076481 1.0000000
7300.0000000 11.5268796 1.0000000
7350.0000000 11.5477622 1.0000000
7400.0000000 11.5702371 1.0000000
7450.0000000 11.5930388 1.0000000
7500.0000000 11.6153126 1.0000000
7550.0000000 11.6367053 1.0000000
7600.0000000 11.6547763 1.0000000
7650.0000000 11.6740551 1.0000000
7700.0000000 11.6974045 1.0000000
7750.0000000 11.7194296 1.0000000
7800.0000000 11.7426175 1.0000000
7850.0000000 11.7651252 1.0000000
7900.0000000 11.7865524 1.0000000
7950.0000000 11.8092714 1.0000000
8000.0000000 11.8341495 1.0000000
8050.0000000 11.8557893 1.0000000
8100.0000000 11.8743509 1.0000000
8150.0000000 11.8938525 1.0000000
8200.0000000 11.9177721 1.0000000
8250.0000000 11.9358665 1.0000000
8300.0000000 11.9500327 1.0000000
8350.0000000 11.9647610 1.0000000
8400.0000000 11.9835573 1.0000000
8450.0000000 12.0042895 1.0000000
8500.0000000 12.0266727 1.0000000
8550.0000000 12.0491541 1.0000000
8600.0000000 12.0679720 1.0000000
8650.0000000 12.0844024 1.0000000
8700.0000000 12.1022790 1.0000000
8750.0000000 12.1217535 1.0000000
8800.0000000 12.1432367 1.0000000
8850.0000000 12.1651863 1.0000000
8900.0000000 12.1898987 1.0000000
8950.0000000 12.2158167 1.0000000
9000.0000000 12.2386314 1.0000000
9050.0000000 12.2590660 1.0000000
9100.0000000 12.2776111 1.0000000
9150.0000000 12.2946906 1.0000000
9200.0000000 12.3176166 1.0000000
9250.0000000 12.3442200 1.0000000
9300.0000000 12.3677843 1.0000000
9350.0000000 12.3911289 1.0000000
9400.0000000 12.4181035 1.0000000
9450.0000000 12.4426441 1.0000000
9500.0000000 12.4648543 1.0000000
9550.0000000 12.4902086 1.0000000
9600.0000000 12.5149548 1.0000000
9650.0000000 12.5377423 1.0000000
9700.0000000 12.5585482 1.0000000
9750.0000000 12.5754103 1.0000000
9800.0000000 12.5933146 1.0000000
9850.0000000 12.6155440 1.0000000
9900.0000000 12.6380464 1.0000000
9950.0000000 12.6583195 1.0000000
10000.0000000 12.6810633 1.0000000

